XLabel,Wavenumber
YLabel,Absorbance
FileType,Absorbance
DisplayDirection,20300
PeakDirection,20310
650.431154,0.060348
651.363004,0.060355
652.294854,0.060159
653.226704,0.060002
654.158554,0.060101
655.090403,0.060255
656.022253,0.060515
656.954103,0.060324
657.885953,0.059807
658.817803,0.059765
659.749652,0.059766
660.681502,0.059985
661.613352,0.060447
662.545202,0.060085
663.477051,0.059926
664.408901,0.060082
665.340751,0.059814
666.272601,0.058419
667.204451,0.059997
668.136300,0.064641
669.068150,0.065228
670.000000,0.058073
670.931850,0.057734
671.863700,0.059515
672.795549,0.059542
673.727399,0.059502
674.659249,0.059847
675.591099,0.060015
676.522949,0.060046
677.454798,0.060127
678.386648,0.059797
679.318498,0.059592
680.250348,0.059410
681.182197,0.059856
682.114047,0.060033
683.045897,0.059497
683.977747,0.059576
684.909597,0.059966
685.841446,0.059864
686.773296,0.059995
687.705146,0.059976
688.636996,0.059895
689.568846,0.059801
690.500695,0.059498
691.432545,0.059367
692.364395,0.060050
693.296245,0.060071
694.228095,0.059917
695.159944,0.060066
696.091794,0.059736
697.023644,0.059412
697.955494,0.059485
698.887344,0.059720
699.819193,0.059846
700.751043,0.059883
701.682893,0.059731
702.614743,0.059981
703.546592,0.059965
704.478442,0.059639
705.410292,0.060003
706.342142,0.060051
707.273992,0.060004
708.205841,0.059663
709.137691,0.059471
710.069541,0.059646
711.001391,0.059753
711.933241,0.059644
712.865090,0.059725
713.796940,0.059564
714.728790,0.059315
715.660640,0.059653
716.592490,0.060150
717.524339,0.059899
718.456189,0.059624
719.388039,0.059457
720.319889,0.059549
721.251739,0.059710
722.183588,0.059930
723.115438,0.059859
724.047288,0.059718
724.979138,0.059368
725.910987,0.059297
726.842837,0.059610
727.774687,0.059574
728.706537,0.059687
729.638387,0.060023
730.570236,0.059880
731.502086,0.059610
732.433936,0.059454
733.365786,0.059715
734.297636,0.059946
735.229485,0.059682
736.161335,0.059447
737.093185,0.059479
738.025035,0.059243
738.956885,0.059477
739.888734,0.059836
740.820584,0.059910
741.752434,0.059820
742.684284,0.059442
743.616134,0.059531
744.547983,0.059785
745.479833,0.059530
746.411683,0.059246
747.343533,0.059338
748.275382,0.059392
749.207232,0.059475
750.139082,0.059784
751.070932,0.059884
752.002782,0.059849
752.934631,0.059556
753.866481,0.059199
754.798331,0.059537
755.730181,0.059973
756.662031,0.059836
757.593880,0.059914
758.525730,0.059773
759.457580,0.059289
760.389430,0.059138
761.321280,0.059416
762.253129,0.059989
763.184979,0.060126
764.116829,0.059675
765.048679,0.059646
765.980529,0.059604
766.912378,0.059382
767.844228,0.059718
768.776078,0.059983
769.707928,0.059750
770.639777,0.059609
771.571627,0.059391
772.503477,0.059393
773.435327,0.059580
774.367177,0.059697
775.299026,0.059830
776.230876,0.059971
777.162726,0.060077
778.094576,0.060000
779.026426,0.059833
779.958275,0.059690
780.890125,0.059449
781.821975,0.059674
782.753825,0.060061
783.685675,0.060264
784.617524,0.059984
785.549374,0.059971
786.481224,0.059912
787.413074,0.059584
788.344924,0.059604
789.276773,0.060122
790.208623,0.060617
791.140473,0.060402
792.072323,0.059912
793.004172,0.059727
793.936022,0.059763
794.867872,0.059816
795.799722,0.060192
796.731572,0.060613
797.663421,0.060113
798.595271,0.059733
799.527121,0.059820
800.458971,0.059914
801.390821,0.060163
802.322670,0.060596
803.254520,0.060703
804.186370,0.060274
805.118220,0.060042
806.050070,0.059995
806.981919,0.060179
807.913769,0.060023
808.845619,0.059779
809.777469,0.060182
810.709318,0.060200
811.641168,0.059921
812.573018,0.059668
813.504868,0.059512
814.436718,0.059602
815.368567,0.059810
816.300417,0.059984
817.232267,0.060281
818.164117,0.060123
819.095967,0.059506
820.027816,0.059434
820.959666,0.059311
821.891516,0.059225
822.823366,0.059765
823.755216,0.059889
824.687065,0.059784
825.618915,0.059505
826.550765,0.059122
827.482615,0.059139
828.414465,0.059392
829.346314,0.059464
830.278164,0.059757
831.210014,0.059806
832.141864,0.059315
833.073713,0.058986
834.005563,0.059222
834.937413,0.059555
835.869263,0.059710
836.801113,0.059696
837.732962,0.059783
838.664812,0.059549
839.596662,0.059312
840.528512,0.059430
841.460362,0.059608
842.392211,0.059624
843.324061,0.059637
844.255911,0.059610
845.187761,0.059600
846.119611,0.059317
847.051460,0.059073
847.983310,0.059171
848.915160,0.059489
849.847010,0.059551
850.778860,0.059595
851.710709,0.059522
852.642559,0.059222
853.574409,0.059107
854.506259,0.059179
855.438108,0.059281
856.369958,0.059561
857.301808,0.059759
858.233658,0.059560
859.165508,0.059264
860.097357,0.058840
861.029207,0.058707
861.961057,0.059299
862.892907,0.059551
863.824757,0.059833
864.756606,0.059909
865.688456,0.059363
866.620306,0.058901
867.552156,0.059086
868.484006,0.059355
869.415855,0.059660
870.347705,0.059781
871.279555,0.059742
872.211405,0.059750
873.143255,0.059752
874.075104,0.059859
875.006954,0.060318
875.938804,0.060620
876.870654,0.060674
877.802503,0.060435
878.734353,0.060178
879.666203,0.060054
880.598053,0.059833
881.529903,0.059777
882.461752,0.059971
883.393602,0.060102
884.325452,0.060020
885.257302,0.059854
886.189152,0.059677
887.121001,0.059581
888.052851,0.059623
888.984701,0.059607
889.916551,0.059870
890.848401,0.059997
891.780250,0.059713
892.712100,0.059596
893.643950,0.059449
894.575800,0.059368
895.507650,0.059710
896.439499,0.060134
897.371349,0.060283
898.303199,0.060051
899.235049,0.059591
900.166898,0.059444
901.098748,0.059622
902.030598,0.059554
902.962448,0.059878
903.894298,0.060151
904.826147,0.059855
905.757997,0.059551
906.689847,0.059472
907.621697,0.059480
908.553547,0.059629
909.485396,0.059998
910.417246,0.060221
911.349096,0.060132
912.280946,0.059706
913.212796,0.059635
914.144645,0.059959
915.076495,0.059899
916.008345,0.059849
916.940195,0.060065
917.872045,0.060303
918.803894,0.060081
919.735744,0.059870
920.667594,0.059921
921.599444,0.060031
922.531293,0.060023
923.463143,0.060043
924.394993,0.060191
925.326843,0.060203
926.258693,0.059981
927.190542,0.059896
928.122392,0.059920
929.054242,0.060010
929.986092,0.060160
930.917942,0.060315
931.849791,0.060202
932.781641,0.059896
933.713491,0.059928
934.645341,0.060103
935.577191,0.060088
936.509040,0.060253
937.440890,0.060472
938.372740,0.060144
939.304590,0.059771
940.236439,0.059758
941.168289,0.059943
942.100139,0.060271
943.031989,0.060487
943.963839,0.060464
944.895688,0.060409
945.827538,0.060199
946.759388,0.059867
947.691238,0.059962
948.623088,0.060251
949.554937,0.060485
950.486787,0.060633
951.418637,0.060474
952.350487,0.060263
953.282337,0.060248
954.214186,0.060252
955.146036,0.060460
956.077886,0.060548
957.009736,0.060295
957.941586,0.060368
958.873435,0.060477
959.805285,0.060359
960.737135,0.060391
961.668985,0.060533
962.600834,0.060720
963.532684,0.060804
964.464534,0.060752
965.396384,0.060606
966.328234,0.060548
967.260083,0.060487
968.191933,0.060513
969.123783,0.060602
970.055633,0.060778
970.987483,0.060940
971.919332,0.060769
972.851182,0.060603
973.783032,0.060631
974.714882,0.060772
975.646732,0.060951
976.578581,0.061153
977.510431,0.061105
978.442281,0.060815
979.374131,0.060671
980.305981,0.060544
981.237830,0.060725
982.169680,0.061105
983.101530,0.061283
984.033380,0.061193
984.965229,0.060948
985.897079,0.060913
986.828929,0.060942
987.760779,0.061004
988.692629,0.061111
989.624478,0.061306
990.556328,0.061442
991.488178,0.061444
992.420028,0.061346
993.351878,0.061356
994.283727,0.061670
995.215577,0.061646
996.147427,0.061583
997.079277,0.061570
998.011127,0.061473
998.942976,0.061493
999.874826,0.061613
1000.806676,0.061790
1001.738526,0.061668
1002.670376,0.061417
1003.602225,0.061455
1004.534075,0.061690
1005.465925,0.061582
1006.397775,0.061416
1007.329624,0.061571
1008.261474,0.061762
1009.193324,0.061806
1010.125174,0.061745
1011.057024,0.061761
1011.988873,0.061696
1012.920723,0.061773
1013.852573,0.061810
1014.784423,0.061829
1015.716273,0.061851
1016.648122,0.061904
1017.579972,0.062020
1018.511822,0.062016
1019.443672,0.061768
1020.375522,0.061707
1021.307371,0.061882
1022.239221,0.062022
1023.171071,0.062099
1024.102921,0.062033
1025.034771,0.061853
1025.966620,0.061734
1026.898470,0.061803
1027.830320,0.061985
1028.762170,0.061998
1029.694019,0.061772
1030.625869,0.061606
1031.557719,0.061816
1032.489569,0.061965
1033.421419,0.061924
1034.353268,0.061920
1035.285118,0.061856
1036.216968,0.061843
1037.148818,0.061867
1038.080668,0.062008
1039.012517,0.061988
1039.944367,0.061757
1040.876217,0.061716
1041.808067,0.061820
1042.739917,0.061834
1043.671766,0.061852
1044.603616,0.061910
1045.535466,0.061986
1046.467316,0.062097
1047.399166,0.061901
1048.331015,0.061840
1049.262865,0.062076
1050.194715,0.062111
1051.126565,0.062028
1052.058414,0.062003
1052.990264,0.061915
1053.922114,0.061835
1054.853964,0.061916
1055.785814,0.061971
1056.717663,0.061927
1057.649513,0.061865
1058.581363,0.061873
1059.513213,0.061992
1060.445063,0.062042
1061.376912,0.062020
1062.308762,0.062052
1063.240612,0.062034
1064.172462,0.062029
1065.104312,0.062010
1066.036161,0.062208
1066.968011,0.062360
1067.899861,0.062217
1068.831711,0.062112
1069.763561,0.062153
1070.695410,0.062259
1071.627260,0.062196
1072.559110,0.062367
1073.490960,0.062512
1074.422809,0.062450
1075.354659,0.062206
1076.286509,0.062208
1077.218359,0.062513
1078.150209,0.062576
1079.082058,0.062676
1080.013908,0.062747
1080.945758,0.062670
1081.877608,0.062563
1082.809458,0.062745
1083.741307,0.062936
1084.673157,0.062830
1085.605007,0.062898
1086.536857,0.063020
1087.468707,0.063003
1088.400556,0.062963
1089.332406,0.063000
1090.264256,0.063213
1091.196106,0.063369
1092.127955,0.063432
1093.059805,0.063508
1093.991655,0.063509
1094.923505,0.063472
1095.855355,0.063544
1096.787204,0.063610
1097.719054,0.063716
1098.650904,0.063850
1099.582754,0.063884
1100.514604,0.064040
1101.446453,0.064081
1102.378303,0.063974
1103.310153,0.063894
1104.242003,0.063831
1105.173853,0.063868
1106.105702,0.064082
1107.037552,0.064179
1107.969402,0.063957
1108.901252,0.063843
1109.833102,0.063847
1110.764951,0.063985
1111.696801,0.064226
1112.628651,0.064085
1113.560501,0.063848
1114.492350,0.063896
1115.424200,0.063964
1116.356050,0.063873
1117.287900,0.063919
1118.219750,0.063974
1119.151599,0.063837
1120.083449,0.063640
1121.015299,0.063624
1121.947149,0.063652
1122.878999,0.063639
1123.810848,0.063608
1124.742698,0.063584
1125.674548,0.063547
1126.606398,0.063519
1127.538248,0.063473
1128.470097,0.063465
1129.401947,0.063581
1130.333797,0.063492
1131.265647,0.063431
1132.197497,0.063459
1133.129346,0.063536
1134.061196,0.063474
1134.993046,0.063352
1135.924896,0.063357
1136.856745,0.063256
1137.788595,0.063177
1138.720445,0.063258
1139.652295,0.063374
1140.584145,0.063317
1141.515994,0.063153
1142.447844,0.063161
1143.379694,0.063038
1144.311544,0.062920
1145.243394,0.063025
1146.175243,0.063182
1147.107093,0.063169
1148.038943,0.062930
1148.970793,0.062825
1149.902643,0.062734
1150.834492,0.062646
1151.766342,0.062729
1152.698192,0.062903
1153.630042,0.062854
1154.561892,0.062620
1155.493741,0.062637
1156.425591,0.062662
1157.357441,0.062608
1158.289291,0.062634
1159.221140,0.062669
1160.152990,0.062699
1161.084840,0.062723
1162.016690,0.062700
1162.948540,0.062611
1163.880389,0.062540
1164.812239,0.062366
1165.744089,0.062315
1166.675939,0.062465
1167.607789,0.062414
1168.539638,0.062287
1169.471488,0.062283
1170.403338,0.062313
1171.335188,0.062216
1172.267038,0.062147
1173.198887,0.062199
1174.130737,0.062440
1175.062587,0.062459
1175.994437,0.062226
1176.926287,0.061989
1177.858136,0.061933
1178.789986,0.062039
1179.721836,0.062176
1180.653686,0.062310
1181.585535,0.062246
1182.517385,0.061986
1183.449235,0.061846
1184.381085,0.061950
1185.312935,0.062037
1186.244784,0.062098
1187.176634,0.062103
1188.108484,0.061957
1189.040334,0.061774
1189.972184,0.061699
1190.904033,0.061742
1191.835883,0.061857
1192.767733,0.061944
1193.699583,0.061975
1194.631433,0.062024
1195.563282,0.061909
1196.495132,0.061806
1197.426982,0.061830
1198.358832,0.061835
1199.290682,0.061829
1200.222531,0.061763
1201.154381,0.061641
1202.086231,0.061691
1203.018081,0.061726
1203.949930,0.061530
1204.881780,0.061541
1205.813630,0.061682
1206.745480,0.061656
1207.677330,0.061655
1208.609179,0.061683
1209.541029,0.061480
1210.472879,0.061247
1211.404729,0.061212
1212.336579,0.061420
1213.268428,0.061561
1214.200278,0.061454
1215.132128,0.061297
1216.063978,0.061225
1216.995828,0.061151
1217.927677,0.061098
1218.859527,0.061141
1219.791377,0.061219
1220.723227,0.061328
1221.655076,0.061307
1222.586926,0.061050
1223.518776,0.060816
1224.450626,0.060882
1225.382476,0.061080
1226.314325,0.061080
1227.246175,0.061072
1228.178025,0.061130
1229.109875,0.060993
1230.041725,0.060901
1230.973574,0.060942
1231.905424,0.060953
1232.837274,0.060899
1233.769124,0.060917
1234.700974,0.061009
1235.632823,0.061074
1236.564673,0.061058
1237.496523,0.060903
1238.428373,0.060816
1239.360223,0.060911
1240.292072,0.060998
1241.223922,0.061014
1242.155772,0.060983
1243.087622,0.060869
1244.019471,0.060931
1244.951321,0.061015
1245.883171,0.060983
1246.815021,0.061069
1247.746871,0.061211
1248.678720,0.061144
1249.610570,0.061031
1250.542420,0.060944
1251.474270,0.061003
1252.406120,0.061168
1253.337969,0.061324
1254.269819,0.061278
1255.201669,0.061276
1256.133519,0.061357
1257.065369,0.061388
1257.997218,0.061419
1258.929068,0.061557
1259.860918,0.061947
1260.792768,0.062173
1261.724618,0.062093
1262.656467,0.061924
1263.588317,0.061914
1264.520167,0.062020
1265.452017,0.062087
1266.383866,0.062114
1267.315716,0.062127
1268.247566,0.062256
1269.179416,0.062170
1270.111266,0.062230
1271.043115,0.062247
1271.974965,0.062120
1272.906815,0.061980
1273.838665,0.061970
1274.770515,0.061887
1275.702364,0.061821
1276.634214,0.061913
1277.566064,0.061876
1278.497914,0.061583
1279.429764,0.061380
1280.361613,0.061475
1281.293463,0.061599
1282.225313,0.061527
1283.157163,0.061358
1284.089013,0.061188
1285.020862,0.061016
1285.952712,0.060905
1286.884562,0.061106
1287.816412,0.061465
1288.748261,0.061512
1289.680111,0.061109
1290.611961,0.060861
1291.543811,0.060969
1292.475661,0.060980
1293.407510,0.060981
1294.339360,0.061038
1295.271210,0.060989
1296.203060,0.061041
1297.134910,0.061099
1298.066759,0.061027
1298.998609,0.060933
1299.930459,0.060864
1300.862309,0.060907
1301.794159,0.061021
1302.726008,0.060972
1303.657858,0.060914
1304.589708,0.060910
1305.521558,0.060915
1306.453408,0.060966
1307.385257,0.061079
1308.317107,0.061225
1309.248957,0.061254
1310.180807,0.061101
1311.112656,0.060889
1312.044506,0.061024
1312.976356,0.061267
1313.908206,0.061246
1314.840056,0.061092
1315.771905,0.061016
1316.703755,0.061219
1317.635605,0.061172
1318.567455,0.061307
1319.499305,0.061602
1320.431154,0.061422
1321.363004,0.061071
1322.294854,0.061150
1323.226704,0.061271
1324.158554,0.061018
1325.090403,0.061040
1326.022253,0.061032
1326.954103,0.061146
1327.885953,0.061168
1328.817803,0.061268
1329.749652,0.061321
1330.681502,0.061311
1331.613352,0.061114
1332.545202,0.061036
1333.477051,0.060982
1334.408901,0.060944
1335.340751,0.060690
1336.272601,0.061130
1337.204451,0.061498
1338.136300,0.061739
1339.068150,0.062184
1340.000000,0.062887
1340.931850,0.062517
1341.863700,0.061052
1342.795549,0.060719
1343.727399,0.061158
1344.659249,0.061463
1345.591099,0.061240
1346.522949,0.061250
1347.454798,0.061301
1348.386648,0.061590
1349.318498,0.061921
1350.250348,0.061943
1351.182197,0.061591
1352.114047,0.061244
1353.045897,0.061313
1353.977747,0.061677
1354.909597,0.062118
1355.841446,0.062063
1356.773296,0.061565
1357.705146,0.061197
1358.636996,0.061051
1359.568846,0.060806
1360.500695,0.061403
1361.432545,0.062554
1362.364395,0.062909
1363.296245,0.063903
1364.228095,0.062851
1365.159944,0.060554
1366.091794,0.060082
1367.023644,0.061259
1367.955494,0.061855
1368.887344,0.062528
1369.819193,0.061856
1370.751043,0.060893
1371.682893,0.061055
1372.614743,0.061831
1373.546592,0.063503
1374.478442,0.065000
1375.410292,0.064046
1376.342142,0.062186
1377.273992,0.062100
1378.205841,0.063146
1379.137691,0.063543
1380.069541,0.063646
1381.001391,0.064060
1381.933241,0.064938
1382.865090,0.066158
1383.796940,0.067837
1384.728790,0.069513
1385.660640,0.070537
1386.592490,0.070476
1387.524339,0.070730
1388.456189,0.068134
1389.388039,0.063574
1390.319889,0.061831
1391.251739,0.062166
1392.183588,0.062149
1393.115438,0.062153
1394.047288,0.064019
1394.979138,0.066293
1395.910987,0.064908
1396.842837,0.061837
1397.774687,0.061800
1398.706537,0.064296
1399.638387,0.065547
1400.570236,0.062960
1401.502086,0.060687
1402.433936,0.061171
1403.365786,0.062382
1404.297636,0.063541
1405.229485,0.065353
1406.161335,0.064190
1407.093185,0.061527
1408.025035,0.061423
1408.956885,0.062522
1409.888734,0.063114
1410.820584,0.063240
1411.752434,0.063009
1412.684284,0.062455
1413.616134,0.061939
1414.547983,0.061260
1415.479833,0.061253
1416.411683,0.062137
1417.343533,0.063822
1418.275382,0.064956
1419.207232,0.068095
1420.139082,0.068130
1421.070932,0.061291
1422.002782,0.059079
1422.934631,0.061713
1423.866481,0.065100
1424.798331,0.064687
1425.730181,0.062125
1426.662031,0.061115
1427.593880,0.062656
1428.525730,0.063341
1429.457580,0.064550
1430.389430,0.065804
1431.321280,0.063510
1432.253129,0.061126
1433.184979,0.061530
1434.116829,0.062614
1435.048679,0.062839
1435.980529,0.065335
1436.912378,0.071232
1437.844228,0.069808
1438.776078,0.061186
1439.707928,0.060250
1440.639777,0.062742
1441.571627,0.063489
1442.503477,0.063377
1443.435327,0.063238
1444.367177,0.063095
1445.299026,0.063232
1446.230876,0.063520
1447.162726,0.064439
1448.094576,0.066515
1449.026426,0.065547
1449.958275,0.062329
1450.890125,0.061584
1451.821975,0.062760
1452.753825,0.062557
1453.685675,0.061109
1454.617524,0.061697
1455.549374,0.064382
1456.481224,0.070276
1457.413074,0.075554
1458.344924,0.071331
1459.276773,0.063265
1460.208623,0.059351
1461.140473,0.059247
1462.072323,0.060714
1463.004172,0.062573
1463.936022,0.063774
1464.867872,0.067272
1465.799722,0.067585
1466.731572,0.062081
1467.663421,0.059713
1468.595271,0.060669
1469.527121,0.061297
1470.458971,0.061566
1471.390821,0.064224
1472.322670,0.068620
1473.254520,0.070353
1474.186370,0.065600
1475.118220,0.059934
1476.050070,0.062621
1476.981919,0.065130
1477.913769,0.062513
1478.845619,0.060286
1479.777469,0.061625
1480.709318,0.063060
1481.641168,0.063666
1482.573018,0.062497
1483.504868,0.060894
1484.436718,0.060633
1485.368567,0.061205
1486.300417,0.061321
1487.232267,0.063430
1488.164117,0.064276
1489.095967,0.063249
1490.027816,0.065112
1490.959666,0.066819
1491.891516,0.061408
1492.823366,0.057055
1493.755216,0.058066
1494.687065,0.059847
1495.618915,0.062636
1496.550765,0.067158
1497.482615,0.064804
1498.414465,0.060878
1499.346314,0.062469
1500.278164,0.060666
1501.210014,0.057396
1502.141864,0.057642
1503.073713,0.058497
1504.005563,0.058224
1504.937413,0.061327
1505.869263,0.067976
1506.801113,0.075929
1507.732962,0.073841
1508.664812,0.061562
1509.596662,0.058392
1510.528512,0.058382
1511.460362,0.058119
1512.392211,0.060571
1513.324061,0.060672
1514.255911,0.058306
1515.187761,0.059409
1516.119611,0.061984
1517.051460,0.064432
1517.983310,0.063663
1518.915160,0.056854
1519.847010,0.056805
1520.778860,0.064106
1521.710709,0.069962
1522.642559,0.065232
1523.574409,0.057880
1524.506259,0.056293
1525.438108,0.061460
1526.369958,0.063244
1527.301808,0.060816
1528.233658,0.059453
1529.165508,0.059820
1530.097357,0.057864
1531.029207,0.058215
1531.961057,0.060628
1532.892907,0.062974
1533.824757,0.065797
1534.756606,0.062062
1535.688456,0.054530
1536.620306,0.054308
1537.552156,0.057346
1538.484006,0.062354
1539.415855,0.070323
1540.347705,0.075008
1541.279555,0.064469
1542.211405,0.061956
1543.143255,0.062287
1544.075104,0.059227
1545.006954,0.060537
1545.938804,0.062266
1546.870654,0.058817
1547.802503,0.057136
1548.734353,0.059008
1549.666203,0.062151
1550.598053,0.063546
1551.529903,0.060359
1552.461752,0.057494
1553.393602,0.058224
1554.325452,0.062325
1555.257302,0.061984
1556.189152,0.056332
1557.121001,0.058763
1558.052851,0.069851
1558.984701,0.081363
1559.916551,0.080053
1560.848401,0.065672
1561.780250,0.054144
1562.712100,0.054622
1563.643950,0.058182
1564.575800,0.062049
1565.507650,0.062620
1566.439499,0.059904
1567.371349,0.058979
1568.303199,0.061190
1569.235049,0.065800
1570.166898,0.069207
1571.098748,0.062278
1572.030598,0.056563
1572.962448,0.057713
1573.894298,0.060351
1574.826147,0.062005
1575.757997,0.066894
1576.689847,0.072358
1577.621697,0.066126
1578.553547,0.058138
1579.485396,0.059138
1580.417246,0.061540
1581.349096,0.061930
1582.280946,0.062262
1583.212796,0.062594
1584.144645,0.062784
1585.076495,0.062985
1586.008345,0.063085
1586.940195,0.062952
1587.872045,0.062754
1588.803894,0.062709
1589.735744,0.062829
1590.667594,0.063022
1591.599444,0.063185
1592.531293,0.063195
1593.463143,0.062898
1594.394993,0.063375
1595.326843,0.063730
1596.258693,0.063417
1597.190542,0.063196
1598.122392,0.063283
1599.054242,0.063206
1599.986092,0.063193
1600.917942,0.063551
1601.849791,0.063785
1602.781641,0.064130
1603.713491,0.064544
1604.645341,0.063913
1605.577191,0.063516
1606.509040,0.063905
1607.440890,0.064755
1608.372740,0.064410
1609.304590,0.064646
1610.236439,0.064764
1611.168289,0.063572
1612.100139,0.062637
1613.031989,0.062939
1613.963839,0.063534
1614.895688,0.064288
1615.827538,0.066519
1616.759388,0.072434
1617.691238,0.072916
1618.623088,0.062668
1619.554937,0.060087
1620.486787,0.063158
1621.418637,0.065091
1622.350487,0.065920
1623.282337,0.069212
1624.214186,0.070654
1625.146036,0.065602
1626.077886,0.062983
1627.009736,0.065050
1627.941586,0.068828
1628.873435,0.068149
1629.805285,0.064550
1630.737135,0.063605
1631.668985,0.065167
1632.600834,0.066167
1633.532684,0.066564
1634.464534,0.068426
1635.396384,0.075340
1636.328234,0.078309
1637.260083,0.067554
1638.191933,0.062493
1639.123783,0.061885
1640.055633,0.062235
1640.987483,0.062565
1641.919332,0.062853
1642.851182,0.062543
1643.783032,0.062758
1644.714882,0.063392
1645.646732,0.066958
1646.578581,0.070895
1647.510431,0.068412
1648.442281,0.061994
1649.374131,0.056985
1650.305981,0.056698
1651.237830,0.060156
1652.169680,0.068147
1653.101530,0.080637
1654.033380,0.088818
1654.965229,0.067790
1655.897079,0.055163
1656.828929,0.056316
1657.760779,0.059257
1658.692629,0.061074
1659.624478,0.061379
1660.556328,0.061734
1661.488178,0.062404
1662.420028,0.064582
1663.351878,0.066231
1664.283727,0.061310
1665.215577,0.057207
1666.147427,0.058040
1667.079277,0.059948
1668.011127,0.061152
1668.942976,0.064987
1669.874826,0.067715
1670.806676,0.061574
1671.738526,0.058795
1672.670376,0.059047
1673.602225,0.058346
1674.534075,0.059954
1675.465925,0.066616
1676.397775,0.065915
1677.329624,0.056623
1678.261474,0.055085
1679.193324,0.057704
1680.125174,0.060151
1681.057024,0.060536
1681.988873,0.059133
1682.920723,0.061237
1683.852573,0.068280
1684.784423,0.076099
1685.716273,0.068554
1686.648122,0.053762
1687.579972,0.053838
1688.511822,0.058335
1689.443672,0.060358
1690.375522,0.059504
1691.307371,0.057733
1692.239221,0.056698
1693.171071,0.057337
1694.102921,0.058073
1695.034771,0.060481
1695.966620,0.066629
1696.898470,0.066834
1697.830320,0.055870
1698.762170,0.054532
1699.694019,0.062227
1700.625869,0.073909
1701.557719,0.070304
1702.489569,0.051572
1703.421419,0.051992
1704.353268,0.059419
1705.285118,0.062771
1706.216968,0.062235
1707.148818,0.061001
1708.080668,0.057853
1709.012517,0.055924
1709.944367,0.057563
1710.876217,0.059116
1711.808067,0.057760
1712.739917,0.056749
1713.671766,0.058247
1714.603616,0.061484
1715.535466,0.063532
1716.467316,0.061556
1717.399166,0.063281
1718.331015,0.067792
1719.262865,0.064445
1720.194715,0.055089
1721.126565,0.054398
1722.058414,0.056926
1722.990264,0.058948
1723.922114,0.059888
1724.853964,0.058896
1725.785814,0.057651
1726.717663,0.057725
1727.649513,0.057893
1728.581363,0.057280
1729.513213,0.058094
1730.445063,0.060210
1731.376912,0.059211
1732.308762,0.057627
1733.240612,0.061186
1734.172462,0.068568
1735.104312,0.068922
1736.036161,0.055464
1736.968011,0.051356
1737.899861,0.055000
1738.831711,0.058199
1739.763561,0.061983
1740.695410,0.062690
1741.627260,0.057000
1742.559110,0.055078
1743.490960,0.058722
1744.422809,0.059794
1745.354659,0.057249
1746.286509,0.056789
1747.218359,0.058651
1748.150209,0.060301
1749.082058,0.061620
1750.013908,0.059832
1750.945758,0.060023
1751.877608,0.062537
1752.809458,0.058881
1753.741307,0.054938
1754.673157,0.055799
1755.605007,0.057659
1756.536857,0.059586
1757.468707,0.061101
1758.400556,0.058673
1759.332406,0.056705
1760.264256,0.057160
1761.196106,0.059603
1762.127955,0.062739
1763.059805,0.060585
1763.991655,0.055302
1764.923505,0.055073
1765.855355,0.056855
1766.787204,0.057200
1767.719054,0.058558
1768.650904,0.061068
1769.582754,0.058752
1770.514604,0.056662
1771.446453,0.059954
1772.378303,0.064931
1773.310153,0.064550
1774.242003,0.056601
1775.173853,0.054087
1776.105702,0.056945
1777.037552,0.058022
1777.969402,0.057053
1778.901252,0.057386
1779.833102,0.058643
1780.764951,0.059998
1781.696801,0.059724
1782.628651,0.057429
1783.560501,0.056694
1784.492350,0.058172
1785.424200,0.059638
1786.356050,0.057863
1787.287900,0.056005
1788.219750,0.056119
1789.151599,0.057314
1790.083449,0.058133
1791.015299,0.060096
1791.947149,0.061583
1792.878999,0.063135
1793.810848,0.060093
1794.742698,0.054834
1795.674548,0.054964
1796.606398,0.057556
1797.538248,0.057675
1798.470097,0.056862
1799.401947,0.058867
1800.333797,0.060831
1801.265647,0.059377
1802.197497,0.058305
1803.129346,0.058403
1804.061196,0.057270
1804.993046,0.056471
1805.924896,0.057151
1806.856745,0.057644
1807.788595,0.058040
1808.720445,0.058151
1809.652295,0.057898
1810.584145,0.058997
1811.515994,0.059586
1812.447844,0.057878
1813.379694,0.056798
1814.311544,0.057057
1815.243394,0.057444
1816.175243,0.057525
1817.107093,0.057957
1818.038943,0.058282
1818.970793,0.057618
1819.902643,0.056984
1820.834492,0.057067
1821.766342,0.057249
1822.698192,0.057468
1823.630042,0.057386
1824.561892,0.057900
1825.493741,0.059968
1826.425591,0.059109
1827.357441,0.055941
1828.289291,0.055926
1829.221140,0.058989
1830.152990,0.062124
1831.084840,0.060138
1832.016690,0.055069
1832.948540,0.054529
1833.880389,0.056618
1834.812239,0.057536
1835.744089,0.057188
1836.675939,0.057225
1837.607789,0.057550
1838.539638,0.056977
1839.471488,0.056181
1840.403338,0.056327
1841.335188,0.056973
1842.267038,0.057653
1843.198887,0.058151
1844.130737,0.061295
1845.062587,0.063209
1845.994437,0.057445
1846.926287,0.053986
1847.858136,0.056280
1848.789986,0.058045
1849.721836,0.056900
1850.653686,0.056461
1851.585535,0.056895
1852.517385,0.057411
1853.449235,0.057325
1854.381085,0.057252
1855.312935,0.057182
1856.244784,0.057329
1857.176634,0.057163
1858.108484,0.057275
1859.040334,0.057383
1859.972184,0.057184
1860.904033,0.056740
1861.835883,0.056772
1862.767733,0.056649
1863.699583,0.056401
1864.631433,0.056206
1865.563282,0.056493
1866.495132,0.057510
1867.426982,0.058757
1868.358832,0.059535
1869.290682,0.060514
1870.222531,0.059333
1871.154381,0.055802
1872.086231,0.054716
1873.018081,0.055861
1873.949930,0.056767
1874.881780,0.057051
1875.813630,0.057191
1876.745480,0.057192
1877.677330,0.057090
1878.609179,0.057042
1879.541029,0.057112
1880.472879,0.057251
1881.404729,0.057110
1882.336579,0.056905
1883.268428,0.056817
1884.200278,0.056939
1885.132128,0.057033
1886.063978,0.057101
1886.995828,0.056938
1887.927677,0.056916
1888.859527,0.057477
1889.791377,0.059193
1890.723227,0.058777
1891.655076,0.056261
1892.586926,0.055610
1893.518776,0.056603
1894.450626,0.057292
1895.382476,0.057899
1896.314325,0.057776
1897.246175,0.056813
1898.178025,0.056439
1899.109875,0.056728
1900.041725,0.056826
1900.973574,0.056918
1901.905424,0.057009
1902.837274,0.057004
1903.769124,0.057056
1904.700974,0.057092
1905.632823,0.056902
1906.564673,0.056713
1907.496523,0.057008
1908.428373,0.057514
1909.360223,0.057524
1910.292072,0.057537
1911.223922,0.057075
1912.155772,0.056212
1913.087622,0.055974
1914.019471,0.056544
1914.951321,0.056870
1915.883171,0.056868
1916.815021,0.056849
1917.746871,0.058237
1918.678720,0.059621
1919.610570,0.057455
1920.542420,0.055256
1921.474270,0.055823
1922.406120,0.057662
1923.337969,0.058754
1924.269819,0.058075
1925.201669,0.056472
1926.133519,0.056148
1927.065369,0.056643
1927.997218,0.056871
1928.929068,0.056840
1929.860918,0.056888
1930.792768,0.057032
1931.724618,0.057062
1932.656467,0.057024
1933.588317,0.056983
1934.520167,0.056991
1935.452017,0.056978
1936.383866,0.056814
1937.315716,0.056723
1938.247566,0.056655
1939.179416,0.056724
1940.111266,0.056778
1941.043115,0.056849
1941.974965,0.057610
1942.906815,0.059140
1943.838665,0.058423
1944.770515,0.056230
1945.702364,0.056039
1946.634214,0.056861
1947.566064,0.056979
1948.497914,0.056724
1949.429764,0.056861
1950.361613,0.056986
1951.293463,0.056940
1952.225313,0.056853
1953.157163,0.056924
1954.089013,0.056904
1955.020862,0.056993
1955.952712,0.057082
1956.884562,0.056952
1957.816412,0.056831
1958.748261,0.056774
1959.680111,0.056723
1960.611961,0.056733
1961.543811,0.056868
1962.475661,0.056973
1963.407510,0.056992
1964.339360,0.057002
1965.271210,0.056824
1966.203060,0.056951
1967.134910,0.057454
1968.066759,0.057708
1968.998609,0.057004
1969.930459,0.056429
1970.862309,0.056577
1971.794159,0.056896
1972.726008,0.056962
1973.657858,0.056824
1974.589708,0.056755
1975.521558,0.056836
1976.453408,0.056891
1977.385257,0.056897
1978.317107,0.056793
1979.248957,0.056673
1980.180807,0.056626
1981.112656,0.056772
1982.044506,0.056871
1982.976356,0.056765
1983.908206,0.056748
1984.840056,0.056760
1985.771905,0.056651
1986.703755,0.056563
1987.635605,0.056730
1988.567455,0.057177
1989.499305,0.057152
1990.431154,0.056637
1991.363004,0.056860
1992.294854,0.057924
1993.226704,0.057639
1994.158554,0.056345
1995.090403,0.056041
1996.022253,0.056511
1996.954103,0.056776
1997.885953,0.056639
1998.817803,0.056691
1999.749652,0.056812
2000.681502,0.056743
2001.613352,0.056618
2002.545202,0.056646
2003.477051,0.056751
2004.408901,0.056668
2005.340751,0.056565
2006.272601,0.056585
2007.204451,0.056641
2008.136300,0.056628
2009.068150,0.056663
2010.000000,0.056699
2010.931850,0.056630
2011.863700,0.056441
2012.795549,0.056320
2013.727399,0.056363
2014.659249,0.056476
2015.591099,0.056636
2016.522949,0.056885
2017.454798,0.057179
2018.386648,0.056934
2019.318498,0.056466
2020.250348,0.056418
2021.182197,0.056499
2022.114047,0.056499
2023.045897,0.056595
2023.977747,0.056595
2024.909597,0.056479
2025.841446,0.056533
2026.773296,0.056656
2027.705146,0.056645
2028.636996,0.056578
2029.568846,0.056453
2030.500695,0.056399
2031.432545,0.056406
2032.364395,0.056433
2033.296245,0.056392
2034.228095,0.056418
2035.159944,0.056474
2036.091794,0.056428
2037.023644,0.056424
2037.955494,0.056380
2038.887344,0.056332
2039.819193,0.056279
2040.751043,0.056411
2041.682893,0.056712
2042.614743,0.056758
2043.546592,0.056342
2044.478442,0.056200
2045.410292,0.056434
2046.342142,0.056493
2047.273992,0.056417
2048.205841,0.056322
2049.137691,0.056301
2050.069541,0.056286
2051.001391,0.056336
2051.933241,0.056374
2052.865090,0.056471
2053.796940,0.056408
2054.728790,0.056106
2055.660640,0.056203
2056.592490,0.056256
2057.524339,0.056051
2058.456189,0.056060
2059.388039,0.056284
2060.319889,0.056410
2061.251739,0.056465
2062.183588,0.056342
2063.115438,0.056109
2064.047288,0.056207
2064.979138,0.056447
2065.910987,0.056567
2066.842837,0.056497
2067.774687,0.056225
2068.706537,0.056042
2069.638387,0.056108
2070.570236,0.056245
2071.502086,0.056266
2072.433936,0.056280
2073.365786,0.056247
2074.297636,0.056244
2075.229485,0.056167
2076.161335,0.056073
2077.093185,0.056192
2078.025035,0.056201
2078.956885,0.056057
2079.888734,0.055937
2080.820584,0.055904
2081.752434,0.055948
2082.684284,0.056017
2083.616134,0.056167
2084.547983,0.056096
2085.479833,0.055968
2086.411683,0.056000
2087.343533,0.056103
2088.275382,0.056082
2089.207232,0.056077
2090.139082,0.056203
2091.070932,0.056121
2092.002782,0.055945
2092.934631,0.056011
2093.866481,0.056112
2094.798331,0.056126
2095.730181,0.055996
2096.662031,0.055932
2097.593880,0.055995
2098.525730,0.056119
2099.457580,0.056175
2100.389430,0.056024
2101.321280,0.055884
2102.253129,0.055772
2103.184979,0.055722
2104.116829,0.055797
2105.048679,0.055892
2105.980529,0.056011
2106.912378,0.055966
2107.844228,0.055772
2108.776078,0.055850
2109.707928,0.055932
2110.639777,0.055877
2111.571627,0.055850
2112.503477,0.055896
2113.435327,0.055820
2114.367177,0.055712
2115.299026,0.055810
2116.230876,0.055936
2117.162726,0.055866
2118.094576,0.055751
2119.026426,0.055809
2119.958275,0.055783
2120.890125,0.055735
2121.821975,0.055810
2122.753825,0.055821
2123.685675,0.055759
2124.617524,0.055826
2125.549374,0.055874
2126.481224,0.055832
2127.413074,0.055795
2128.344924,0.055811
2129.276773,0.055749
2130.208623,0.055606
2131.140473,0.055624
2132.072323,0.055815
2133.004172,0.055899
2133.936022,0.055769
2134.867872,0.055637
2135.799722,0.055666
2136.731572,0.055692
2137.663421,0.055681
2138.595271,0.055729
2139.527121,0.055788
2140.458971,0.055809
2141.390821,0.055626
2142.322670,0.055507
2143.254520,0.055561
2144.186370,0.055614
2145.118220,0.055790
2146.050070,0.055902
2146.981919,0.055891
2147.913769,0.055621
2148.845619,0.055449
2149.777469,0.055568
2150.709318,0.055691
2151.641168,0.055571
2152.573018,0.055561
2153.504868,0.055636
2154.436718,0.055659
2155.368567,0.055644
2156.300417,0.055569
2157.232267,0.055660
2158.164117,0.055867
2159.095967,0.055964
2160.027816,0.055855
2160.959666,0.055723
2161.891516,0.055736
2162.823366,0.055734
2163.755216,0.055759
2164.687065,0.055707
2165.618915,0.055597
2166.550765,0.055739
2167.482615,0.055841
2168.414465,0.055918
2169.346314,0.056285
2170.278164,0.056764
2171.210014,0.057144
2172.141864,0.057113
2173.073713,0.056608
2174.005563,0.056002
2174.937413,0.055616
2175.869263,0.055435
2176.801113,0.055585
2177.732962,0.055623
2178.664812,0.055524
2179.596662,0.055519
2180.528512,0.055590
2181.460362,0.055573
2182.392211,0.055465
2183.324061,0.055412
2184.255911,0.055565
2185.187761,0.055623
2186.119611,0.055510
2187.051460,0.055427
2187.983310,0.055458
2188.915160,0.055339
2189.847010,0.055255
2190.778860,0.055398
2191.710709,0.055479
2192.642559,0.055398
2193.574409,0.055277
2194.506259,0.055294
2195.438108,0.055266
2196.369958,0.055093
2197.301808,0.055024
2198.233658,0.055106
2199.165508,0.055210
2200.097357,0.055305
2201.029207,0.055257
2201.961057,0.055371
2202.892907,0.055409
2203.824757,0.055207
2204.756606,0.055189
2205.688456,0.055196
2206.620306,0.055193
2207.552156,0.055322
2208.484006,0.055218
2209.415855,0.055119
2210.347705,0.055155
2211.279555,0.054996
2212.211405,0.054998
2213.143255,0.055226
2214.075104,0.055236
2215.006954,0.055160
2215.938804,0.055080
2216.870654,0.055078
2217.802503,0.055152
2218.734353,0.055255
2219.666203,0.055224
2220.598053,0.055087
2221.529903,0.055059
2222.461752,0.055057
2223.393602,0.055010
2224.325452,0.054925
2225.257302,0.055062
2226.189152,0.055139
2227.121001,0.055037
2228.052851,0.055036
2228.984701,0.055101
2229.916551,0.055071
2230.848401,0.054907
2231.780250,0.054957
2232.712100,0.055097
2233.643950,0.055155
2234.575800,0.055113
2235.507650,0.054960
2236.439499,0.054927
2237.371349,0.054897
2238.303199,0.054793
2239.235049,0.054778
2240.166898,0.054934
2241.098748,0.055008
2242.030598,0.054985
2242.962448,0.054811
2243.894298,0.054673
2244.826147,0.054788
2245.757997,0.054858
2246.689847,0.054868
2247.621697,0.054858
2248.553547,0.054788
2249.485396,0.054645
2250.417246,0.054596
2251.349096,0.054717
2252.280946,0.054778
2253.212796,0.054744
2254.144645,0.054675
2255.076495,0.054675
2256.008345,0.054637
2256.940195,0.054573
2257.872045,0.054579
2258.803894,0.054551
2259.735744,0.054649
2260.667594,0.054715
2261.599444,0.054517
2262.531293,0.054407
2263.463143,0.054528
2264.394993,0.054559
2265.326843,0.054552
2266.258693,0.054565
2267.190542,0.054597
2268.122392,0.054681
2269.054242,0.054579
2269.986092,0.054574
2270.917942,0.054571
2271.849791,0.054464
2272.781641,0.054361
2273.713491,0.054472
2274.645341,0.054645
2275.577191,0.054623
2276.509040,0.054314
2277.440890,0.054218
2278.372740,0.054316
2279.304590,0.054420
2280.236439,0.054410
2281.168289,0.054412
2282.100139,0.054289
2283.031989,0.054152
2283.963839,0.054193
2284.895688,0.054373
2285.827538,0.054467
2286.759388,0.054521
2287.691238,0.054521
2288.623088,0.054492
2289.554937,0.054330
2290.486787,0.054264
2291.418637,0.054236
2292.350487,0.054374
2293.282337,0.054444
2294.214186,0.054490
2295.146036,0.054503
2296.077886,0.054414
2297.009736,0.054263
2297.941586,0.054239
2298.873435,0.054359
2299.805285,0.054324
2300.737135,0.054167
2301.668985,0.054218
2302.600834,0.054272
2303.532684,0.054365
2304.464534,0.054345
2305.396384,0.054332
2306.328234,0.054193
2307.260083,0.054266
2308.191933,0.054517
2309.123783,0.054427
2310.055633,0.054241
2310.987483,0.054058
2311.919332,0.054246
2312.851182,0.054314
2313.783032,0.054358
2314.714882,0.054369
2315.646732,0.054137
2316.578581,0.054129
2317.510431,0.053766
2318.442281,0.053988
2319.374131,0.054078
2320.305981,0.055006
2321.237830,0.054817
2322.169680,0.054923
2323.101530,0.054299
2324.033380,0.054339
2324.965229,0.054000
2325.897079,0.054117
2326.828929,0.053975
2327.760779,0.054335
2328.692629,0.054111
2329.624478,0.054178
2330.556328,0.054009
2331.488178,0.054149
2332.420028,0.054266
2333.351878,0.054170
2334.283727,0.053830
2335.215577,0.053824
2336.147427,0.054046
2337.079277,0.054296
2338.011127,0.054384
2338.942976,0.054366
2339.874826,0.054457
2340.806676,0.054811
2341.738526,0.054989
2342.670376,0.054836
2343.602225,0.054645
2344.534075,0.054488
2345.465925,0.053970
2346.397775,0.052932
2347.329624,0.052271
2348.261474,0.050844
2349.193324,0.050089
2350.125174,0.050768
2351.057024,0.052764
2351.988873,0.054508
2352.920723,0.054900
2353.852573,0.054789
2354.784423,0.055075
2355.716273,0.054518
2356.648122,0.054453
2357.579972,0.054082
2358.511822,0.054214
2359.443672,0.054386
2360.375522,0.053760
2361.307371,0.054148
2362.239221,0.054573
2363.171071,0.053868
2364.102921,0.054380
2365.034771,0.054254
2365.966620,0.053851
2366.898470,0.054623
2367.830320,0.054921
2368.762170,0.054142
2369.694019,0.054610
2370.625869,0.055263
2371.557719,0.054621
2372.489569,0.054117
2373.421419,0.054555
2374.353268,0.054650
2375.285118,0.054332
2376.216968,0.053942
2377.148818,0.053935
2378.080668,0.054019
2379.012517,0.053854
2379.944367,0.053570
2380.876217,0.053482
2381.808067,0.053564
2382.739917,0.053689
2383.671766,0.053465
2384.603616,0.053303
2385.535466,0.053204
2386.467316,0.053169
2387.399166,0.053354
2388.331015,0.053575
2389.262865,0.053528
2390.194715,0.053441
2391.126565,0.053346
2392.058414,0.053420
2392.990264,0.053380
2393.922114,0.053377
2394.853964,0.053470
2395.785814,0.053545
2396.717663,0.053221
2397.649513,0.053006
2398.581363,0.053075
2399.513213,0.053323
2400.445063,0.053196
2401.376912,0.053107
2402.308762,0.053220
2403.240612,0.053322
2404.172462,0.053355
2405.104312,0.053367
2406.036161,0.053325
2406.968011,0.053229
2407.899861,0.053140
2408.831711,0.053200
2409.763561,0.053228
2410.695410,0.053268
2411.627260,0.053208
2412.559110,0.053233
2413.490960,0.053145
2414.422809,0.053111
2415.354659,0.053118
2416.286509,0.053163
2417.218359,0.053106
2418.150209,0.053159
2419.082058,0.053027
2420.013908,0.052817
2420.945758,0.052804
2421.877608,0.053051
2422.809458,0.053171
2423.741307,0.053044
2424.673157,0.052964
2425.605007,0.052980
2426.536857,0.053050
2427.468707,0.053166
2428.400556,0.053130
2429.332406,0.053165
2430.264256,0.053132
2431.196106,0.052937
2432.127955,0.052768
2433.059805,0.052827
2433.991655,0.052943
2434.923505,0.052911
2435.855355,0.052819
2436.787204,0.052758
2437.719054,0.052746
2438.650904,0.052865
2439.582754,0.052866
2440.514604,0.052904
2441.446453,0.052737
2442.378303,0.052619
2443.310153,0.052733
2444.242003,0.053016
2445.173853,0.053078
2446.105702,0.052860
2447.037552,0.052595
2447.969402,0.052619
2448.901252,0.052800
2449.833102,0.052838
2450.764951,0.052709
2451.696801,0.052723
2452.628651,0.052660
2453.560501,0.052505
2454.492350,0.052400
2455.424200,0.052498
2456.356050,0.052587
2457.287900,0.052674
2458.219750,0.052486
2459.151599,0.052450
2460.083449,0.052590
2461.015299,0.052644
2461.947149,0.052585
2462.878999,0.052604
2463.810848,0.052674
2464.742698,0.052710
2465.674548,0.052581
2466.606398,0.052559
2467.538248,0.052746
2468.470097,0.052747
2469.401947,0.052517
2470.333797,0.052510
2471.265647,0.052573
2472.197497,0.052634
2473.129346,0.052597
2474.061196,0.052493
2474.993046,0.052375
2475.924896,0.052349
2476.856745,0.052372
2477.788595,0.052420
2478.720445,0.052425
2479.652295,0.052324
2480.584145,0.052102
2481.515994,0.052259
2482.447844,0.052491
2483.379694,0.052499
2484.311544,0.052329
2485.243394,0.052303
2486.175243,0.052303
2487.107093,0.052330
2488.038943,0.052213
2488.970793,0.052331
2489.902643,0.052389
2490.834492,0.052488
2491.766342,0.052528
2492.698192,0.052444
2493.630042,0.052239
2494.561892,0.052308
2495.493741,0.052482
2496.425591,0.052413
2497.357441,0.052219
2498.289291,0.052313
2499.221140,0.052365
2500.152990,0.052322
2501.084840,0.052267
2502.016690,0.052267
2502.948540,0.052247
2503.880389,0.052349
2504.812239,0.052206
2505.744089,0.052207
2506.675939,0.052293
2507.607789,0.052309
2508.539638,0.052187
2509.471488,0.052275
2510.403338,0.052448
2511.335188,0.052333
2512.267038,0.052313
2513.198887,0.052301
2514.130737,0.052104
2515.062587,0.052122
2515.994437,0.052341
2516.926287,0.052538
2517.858136,0.052498
2518.789986,0.052459
2519.721836,0.052302
2520.653686,0.052271
2521.585535,0.052290
2522.517385,0.052282
2523.449235,0.052214
2524.381085,0.052265
2525.312935,0.052213
2526.244784,0.052130
2527.176634,0.052219
2528.108484,0.052329
2529.040334,0.052179
2529.972184,0.052134
2530.904033,0.052201
2531.835883,0.052258
2532.767733,0.052073
2533.699583,0.052174
2534.631433,0.052236
2535.563282,0.052285
2536.495132,0.052236
2537.426982,0.052139
2538.358832,0.052122
2539.290682,0.052142
2540.222531,0.052122
2541.154381,0.052112
2542.086231,0.052110
2543.018081,0.052187
2543.949930,0.052202
2544.881780,0.052255
2545.813630,0.052173
2546.745480,0.052110
2547.677330,0.051965
2548.609179,0.051937
2549.541029,0.052094
2550.472879,0.052160
2551.404729,0.052166
2552.336579,0.052330
2553.268428,0.052181
2554.200278,0.052105
2555.132128,0.052108
2556.063978,0.052085
2556.995828,0.051991
2557.927677,0.052044
2558.859527,0.052148
2559.791377,0.052161
2560.723227,0.051911
2561.655076,0.051993
2562.586926,0.052047
2563.518776,0.051954
2564.450626,0.051941
2565.382476,0.052029
2566.314325,0.051955
2567.246175,0.051994
2568.178025,0.052027
2569.109875,0.052180
2570.041725,0.052132
2570.973574,0.051886
2571.905424,0.051834
2572.837274,0.051989
2573.769124,0.051864
2574.700974,0.051875
2575.632823,0.051987
2576.564673,0.051978
2577.496523,0.051856
2578.428373,0.051821
2579.360223,0.051751
2580.292072,0.051859
2581.223922,0.051894
2582.155772,0.051849
2583.087622,0.051756
2584.019471,0.051774
2584.951321,0.051806
2585.883171,0.051966
2586.815021,0.051918
2587.746871,0.051797
2588.678720,0.051772
2589.610570,0.051725
2590.542420,0.051602
2591.474270,0.051680
2592.406120,0.051813
2593.337969,0.051941
2594.269819,0.051629
2595.201669,0.051485
2596.133519,0.051667
2597.065369,0.051800
2597.997218,0.051756
2598.929068,0.051744
2599.860918,0.051718
2600.792768,0.051681
2601.724618,0.051666
2602.656467,0.051485
2603.588317,0.051386
2604.520167,0.051536
2605.452017,0.051421
2606.383866,0.051431
2607.315716,0.051473
2608.247566,0.051668
2609.179416,0.051684
2610.111266,0.051459
2611.043115,0.051285
2611.974965,0.051486
2612.906815,0.051471
2613.838665,0.051528
2614.770515,0.051671
2615.702364,0.051631
2616.634214,0.051268
2617.566064,0.051114
2618.497914,0.051357
2619.429764,0.051559
2620.361613,0.051338
2621.293463,0.051245
2622.225313,0.051227
2623.157163,0.051238
2624.089013,0.051003
2625.020862,0.050996
2625.952712,0.051170
2626.884562,0.051314
2627.816412,0.051196
2628.748261,0.051001
2629.680111,0.050955
2630.611961,0.051248
2631.543811,0.051436
2632.475661,0.051428
2633.407510,0.051184
2634.339360,0.051112
2635.271210,0.051153
2636.203060,0.051074
2637.134910,0.051116
2638.066759,0.051107
2638.998609,0.050764
2639.930459,0.050802
2640.862309,0.050922
2641.794159,0.051016
2642.726008,0.050880
2643.657858,0.050838
2644.589708,0.050910
2645.521558,0.050931
2646.453408,0.050956
2647.385257,0.050710
2648.317107,0.050501
2649.248957,0.050757
2650.180807,0.050758
2651.112656,0.050682
2652.044506,0.050586
2652.976356,0.050867
2653.908206,0.050995
2654.840056,0.050761
2655.771905,0.050675
2656.703755,0.050754
2657.635605,0.050561
2658.567455,0.050687
2659.499305,0.050822
2660.431154,0.050785
2661.363004,0.050472
2662.294854,0.050525
2663.226704,0.050744
2664.158554,0.050662
2665.090403,0.050535
2666.022253,0.050669
2666.954103,0.050636
2667.885953,0.050723
2668.817803,0.050539
2669.749652,0.050411
2670.681502,0.050380
2671.613352,0.050655
2672.545202,0.050767
2673.477051,0.050492
2674.408901,0.050278
2675.340751,0.050337
2676.272601,0.050507
2677.204451,0.050405
2678.136300,0.050146
2679.068150,0.050238
2680.000000,0.050201
2680.931850,0.050342
2681.863700,0.050378
2682.795549,0.050141
2683.727399,0.050126
2684.659249,0.050203
2685.591099,0.049748
2686.522949,0.049893
2687.454798,0.049899
2688.386648,0.049682
2689.318498,0.049804
2690.250348,0.049958
2691.182197,0.050000
2692.114047,0.050162
2693.045897,0.050261
2693.977747,0.050061
2694.909597,0.050026
2695.841446,0.050147
2696.773296,0.050071
2697.705146,0.050101
2698.636996,0.050038
2699.568846,0.049832
2700.500695,0.049657
2701.432545,0.049855
2702.364395,0.049969
2703.296245,0.050215
2704.228095,0.050093
2705.159944,0.050049
2706.091794,0.050044
2707.023644,0.049781
2707.955494,0.049705
2708.887344,0.049658
2709.819193,0.049936
2710.751043,0.050105
2711.682893,0.049552
2712.614743,0.049525
2713.546592,0.049681
2714.478442,0.049776
2715.410292,0.049880
2716.342142,0.050193
2717.273992,0.050040
2718.205841,0.049991
2719.137691,0.050258
2720.069541,0.050245
2721.001391,0.049894
2721.933241,0.049834
2722.865090,0.049678
2723.796940,0.049664
2724.728790,0.049825
2725.660640,0.049958
2726.592490,0.049780
2727.524339,0.049587
2728.456189,0.049620
2729.388039,0.049688
2730.319889,0.049560
2731.251739,0.049608
2732.183588,0.049761
2733.115438,0.050061
2734.047288,0.049989
2734.979138,0.049523
2735.910987,0.049238
2736.842837,0.049602
2737.774687,0.050053
2738.706537,0.050315
2739.638387,0.050089
2740.570236,0.049581
2741.502086,0.049278
2742.433936,0.049349
2743.365786,0.049553
2744.297636,0.049933
2745.229485,0.049604
2746.161335,0.049527
2747.093185,0.049673
2748.025035,0.050006
2748.956885,0.049964
2749.888734,0.049858
2750.820584,0.049854
2751.752434,0.049740
2752.684284,0.049634
2753.616134,0.049731
2754.547983,0.049406
2755.479833,0.049268
2756.411683,0.049584
2757.343533,0.049691
2758.275382,0.049741
2759.207232,0.049874
2760.139082,0.049609
2761.070932,0.049471
2762.002782,0.049666
2762.934631,0.050012
2763.866481,0.049708
2764.798331,0.049463
2765.730181,0.049568
2766.662031,0.049762
2767.593880,0.049521
2768.525730,0.049230
2769.457580,0.049401
2770.389430,0.049490
2771.321280,0.049498
2772.253129,0.049899
2773.184979,0.050279
2774.116829,0.049978
2775.048679,0.049770
2775.980529,0.049643
2776.912378,0.049322
2777.844228,0.049311
2778.776078,0.049525
2779.707928,0.049824
2780.639777,0.049414
2781.571627,0.048948
2782.503477,0.048940
2783.435327,0.049329
2784.367177,0.049454
2785.299026,0.049639
2786.230876,0.049708
2787.162726,0.049752
2788.094576,0.049906
2789.026426,0.050381
2789.958275,0.050502
2790.890125,0.050477
2791.821975,0.050018
2792.753825,0.049592
2793.685675,0.049490
2794.617524,0.049558
2795.549374,0.049740
2796.481224,0.049976
2797.413074,0.049915
2798.344924,0.049875
2799.276773,0.049471
2800.208623,0.049491
2801.140473,0.049501
2802.072323,0.049519
2803.004172,0.049457
2803.936022,0.049603
2804.867872,0.049691
2805.799722,0.049841
2806.731572,0.049861
2807.663421,0.049528
2808.595271,0.049281
2809.527121,0.049083
2810.458971,0.048814
2811.390821,0.049280
2812.322670,0.049478
2813.254520,0.049623
2814.186370,0.049529
2815.118220,0.049699
2816.050070,0.049748
2816.981919,0.049671
2817.913769,0.049450
2818.845619,0.049588
2819.777469,0.049984
2820.709318,0.049736
2821.641168,0.049060
2822.573018,0.049492
2823.504868,0.049200
2824.436718,0.048962
2825.368567,0.049313
2826.300417,0.049544
2827.232267,0.049503
2828.164117,0.049363
2829.095967,0.048920
2830.027816,0.049166
2830.959666,0.049113
2831.891516,0.049132
2832.823366,0.049378
2833.755216,0.049486
2834.687065,0.049407
2835.618915,0.049965
2836.550765,0.050439
2837.482615,0.050486
2838.414465,0.049995
2839.346314,0.049876
2840.278164,0.049677
2841.210014,0.049619
2842.141864,0.049149
2843.073713,0.048925
2844.005563,0.049204
2844.937413,0.049645
2845.869263,0.049707
2846.801113,0.049670
2847.732962,0.049331
2848.664812,0.049109
2849.596662,0.049001
2850.528512,0.049280
2851.460362,0.049586
2852.392211,0.049270
2853.324061,0.048896
2854.255911,0.049214
2855.187761,0.048878
2856.119611,0.049104
2857.051460,0.049490
2857.983310,0.049409
2858.915160,0.049134
2859.847010,0.049198
2860.778860,0.049513
2861.710709,0.049555
2862.642559,0.049257
2863.574409,0.049549
2864.506259,0.049186
2865.438108,0.048822
2866.369958,0.048821
2867.301808,0.049082
2868.233658,0.049533
2869.165508,0.049899
2870.097357,0.049477
2871.029207,0.049298
2871.961057,0.049247
2872.892907,0.049331
2873.824757,0.049300
2874.756606,0.048991
2875.688456,0.048747
2876.620306,0.048692
2877.552156,0.048987
2878.484006,0.049435
2879.415855,0.049298
2880.347705,0.049175
2881.279555,0.048823
2882.211405,0.048950
2883.143255,0.048886
2884.075104,0.048782
2885.006954,0.048593
2885.938804,0.048901
2886.870654,0.049062
2887.802503,0.048927
2888.734353,0.048453
2889.666203,0.048633
2890.598053,0.048952
2891.529903,0.049271
2892.461752,0.048883
2893.393602,0.048614
2894.325452,0.048763
2895.257302,0.049025
2896.189152,0.048660
2897.121001,0.048395
2898.052851,0.048352
2898.984701,0.048742
2899.916551,0.048823
2900.848401,0.048929
2901.780250,0.048761
2902.712100,0.048711
2903.643950,0.048669
2904.575800,0.048480
2905.507650,0.048687
2906.439499,0.049154
2907.371349,0.048917
2908.303199,0.049076
2909.235049,0.049397
2910.166898,0.049940
2911.098748,0.049894
2912.030598,0.049478
2912.962448,0.049388
2913.894298,0.049977
2914.826147,0.049823
2915.757997,0.049644
2916.689847,0.049530
2917.621697,0.049407
2918.553547,0.049310
2919.485396,0.049174
2920.417246,0.048626
2921.349096,0.049078
2922.280946,0.049047
2923.212796,0.048860
2924.144645,0.049058
2925.076495,0.049020
2926.008345,0.048585
2926.940195,0.048809
2927.872045,0.049155
2928.803894,0.049672
2929.735744,0.049437
2930.667594,0.048864
2931.599444,0.048614
2932.531293,0.048851
2933.463143,0.048870
2934.394993,0.048741
2935.326843,0.048312
2936.258693,0.048607
2937.190542,0.048933
2938.122392,0.049251
2939.054242,0.049246
2939.986092,0.048963
2940.917942,0.048851
2941.849791,0.049272
2942.781641,0.049290
2943.713491,0.049256
2944.645341,0.048985
2945.577191,0.048988
2946.509040,0.049088
2947.440890,0.049715
2948.372740,0.049348
2949.304590,0.048933
2950.236439,0.048896
2951.168289,0.048981
2952.100139,0.049170
2953.031989,0.049260
2953.963839,0.048560
2954.895688,0.048282
2955.827538,0.048192
2956.759388,0.048388
2957.691238,0.048472
2958.623088,0.048423
2959.554937,0.048076
2960.486787,0.048286
2961.418637,0.048531
2962.350487,0.048887
2963.282337,0.048992
2964.214186,0.049006
2965.146036,0.048509
2966.077886,0.048868
2967.009736,0.049341
2967.941586,0.049165
2968.873435,0.048626
2969.805285,0.048208
2970.737135,0.048268
2971.668985,0.048857
2972.600834,0.048661
2973.532684,0.048774
2974.464534,0.048968
2975.396384,0.049105
2976.328234,0.048895
2977.260083,0.049066
2978.191933,0.049214
2979.123783,0.049169
2980.055633,0.048410
2980.987483,0.048220
2981.919332,0.048475
2982.851182,0.048597
2983.783032,0.047881
2984.714882,0.047199
2985.646732,0.046790
2986.578581,0.046920
2987.510431,0.047081
2988.442281,0.047955
2989.374131,0.048365
2990.305981,0.048523
2991.237830,0.048386
2992.169680,0.048619
2993.101530,0.049034
2994.033380,0.049308
2994.965229,0.048907
2995.897079,0.048641
2996.828929,0.048593
2997.760779,0.048848
2998.692629,0.048489
2999.624478,0.048322
3000.556328,0.047856
3001.488178,0.048037
3002.420028,0.048506
3003.351878,0.048624
3004.283727,0.047990
3005.215577,0.048018
3006.147427,0.048135
3007.079277,0.048114
3008.011127,0.048209
3008.942976,0.048646
3009.874826,0.048333
3010.806676,0.048623
3011.738526,0.048739
3012.670376,0.048243
3013.602225,0.047855
3014.534075,0.048412
3015.465925,0.048721
3016.397775,0.049407
3017.329624,0.049602
3018.261474,0.048812
3019.193324,0.047765
3020.125174,0.048048
3021.057024,0.048101
3021.988873,0.047602
3022.920723,0.047605
3023.852573,0.048253
3024.784423,0.048296
3025.716273,0.048276
3026.648122,0.047671
3027.579972,0.047419
3028.511822,0.047965
3029.443672,0.048359
3030.375522,0.048069
3031.307371,0.048695
3032.239221,0.048847
3033.171071,0.048610
3034.102921,0.048184
3035.034771,0.048048
3035.966620,0.048146
3036.898470,0.049074
3037.830320,0.049196
3038.762170,0.048986
3039.694019,0.048801
3040.625869,0.048720
3041.557719,0.048934
3042.489569,0.048961
3043.421419,0.048702
3044.353268,0.049141
3045.285118,0.048918
3046.216968,0.048490
3047.148818,0.048152
3048.080668,0.048370
3049.012517,0.048814
3049.944367,0.049337
3050.876217,0.048855
3051.808067,0.048501
3052.739917,0.047861
3053.671766,0.047727
3054.603616,0.048138
3055.535466,0.048646
3056.467316,0.048347
3057.399166,0.047833
3058.331015,0.047811
3059.262865,0.048358
3060.194715,0.048895
3061.126565,0.048889
3062.058414,0.048303
3062.990264,0.048783
3063.922114,0.049071
3064.853964,0.049138
3065.785814,0.048855
3066.717663,0.048833
3067.649513,0.048569
3068.581363,0.048498
3069.513213,0.048469
3070.445063,0.048475
3071.376912,0.048267
3072.308762,0.049038
3073.240612,0.048687
3074.172462,0.047693
3075.104312,0.048070
3076.036161,0.049443
3076.968011,0.049295
3077.899861,0.049165
3078.831711,0.049275
3079.763561,0.049608
3080.695410,0.049025
3081.627260,0.048578
3082.559110,0.048560
3083.490960,0.048998
3084.422809,0.049550
3085.354659,0.049953
3086.286509,0.049282
3087.218359,0.048606
3088.150209,0.048641
3089.082058,0.049210
3090.013908,0.048965
3090.945758,0.048768
3091.877608,0.048704
3092.809458,0.048902
3093.741307,0.048290
3094.673157,0.048114
3095.605007,0.048399
3096.536857,0.048776
3097.468707,0.048348
3098.400556,0.048493
3099.332406,0.048676
3100.264256,0.048866
3101.196106,0.048959
3102.127955,0.049246
3103.059805,0.049010
3103.991655,0.048582
3104.923505,0.048082
3105.855355,0.048006
3106.787204,0.048621
3107.719054,0.049816
3108.650904,0.049360
3109.582754,0.049206
3110.514604,0.049291
3111.446453,0.049358
3112.378303,0.049325
3113.310153,0.049870
3114.242003,0.049899
3115.173853,0.049757
3116.105702,0.049304
3117.037552,0.049495
3117.969402,0.049985
3118.901252,0.050444
3119.833102,0.050279
3120.764951,0.049424
3121.696801,0.048849
3122.628651,0.049341
3123.560501,0.049561
3124.492350,0.049663
3125.424200,0.049239
3126.356050,0.048942
3127.287900,0.048913
3128.219750,0.049035
3129.151599,0.048748
3130.083449,0.049309
3131.015299,0.049370
3131.947149,0.049370
3132.878999,0.049686
3133.810848,0.049500
3134.742698,0.048821
3135.674548,0.049291
3136.606398,0.049433
3137.538248,0.049430
3138.470097,0.049010
3139.401947,0.049128
3140.333797,0.049366
3141.265647,0.049314
3142.197497,0.049160
3143.129346,0.049377
3144.061196,0.049462
3144.993046,0.049725
3145.924896,0.049394
3146.856745,0.049503
3147.788595,0.049916
3148.720445,0.050129
3149.652295,0.049343
3150.584145,0.049465
3151.515994,0.050845
3152.447844,0.051059
3153.379694,0.049726
3154.311544,0.049700
3155.243394,0.049582
3156.175243,0.049208
3157.107093,0.048807
3158.038943,0.049707
3158.970793,0.049812
3159.902643,0.049797
3160.834492,0.049499
3161.766342,0.049155
3162.698192,0.049117
3163.630042,0.049414
3164.561892,0.049379
3165.493741,0.049017
3166.425591,0.048567
3167.357441,0.049094
3168.289291,0.049379
3169.221140,0.049665
3170.152990,0.049563
3171.084840,0.050033
3172.016690,0.049944
3172.948540,0.049817
3173.880389,0.049599
3174.812239,0.049890
3175.744089,0.050250
3176.675939,0.050010
3177.607789,0.049772
3178.539638,0.050071
3179.471488,0.050002
3180.403338,0.049855
3181.335188,0.049108
3182.267038,0.049150
3183.198887,0.049192
3184.130737,0.049574
3185.062587,0.049935
3185.994437,0.050185
3186.926287,0.050076
3187.858136,0.050245
3188.789986,0.049982
3189.721836,0.050305
3190.653686,0.050307
3191.585535,0.049946
3192.517385,0.049769
3193.449235,0.050287
3194.381085,0.050055
3195.312935,0.049950
3196.244784,0.049623
3197.176634,0.049920
3198.108484,0.049978
3199.040334,0.050282
3199.972184,0.050124
3200.904033,0.049574
3201.835883,0.049504
3202.767733,0.050200
3203.699583,0.050361
3204.631433,0.050530
3205.563282,0.050055
3206.495132,0.050046
3207.426982,0.050170
3208.358832,0.050593
3209.290682,0.050389
3210.222531,0.050541
3211.154381,0.050749
3212.086231,0.050739
3213.018081,0.050370
3213.949930,0.050787
3214.881780,0.050597
3215.813630,0.050639
3216.745480,0.050468
3217.677330,0.050474
3218.609179,0.050623
3219.541029,0.051244
3220.472879,0.051423
3221.404729,0.051219
3222.336579,0.050390
3223.268428,0.050211
3224.200278,0.050275
3225.132128,0.050920
3226.063978,0.051075
3226.995828,0.050997
3227.927677,0.050583
3228.859527,0.050480
3229.791377,0.050325
3230.723227,0.050822
3231.655076,0.050946
3232.586926,0.051216
3233.518776,0.051455
3234.450626,0.051736
3235.382476,0.051244
3236.314325,0.051285
3237.246175,0.051482
3238.178025,0.051510
3239.109875,0.051119
3240.041725,0.050896
3240.973574,0.050748
3241.905424,0.051185
3242.837274,0.051218
3243.769124,0.051383
3244.700974,0.051621
3245.632823,0.052218
3246.564673,0.051996
3247.496523,0.051740
3248.428373,0.051495
3249.360223,0.051559
3250.292072,0.051515
3251.223922,0.051659
3252.155772,0.051294
3253.087622,0.051340
3254.019471,0.051573
3254.951321,0.052046
3255.883171,0.051827
3256.815021,0.051761
3257.746871,0.051589
3258.678720,0.051651
3259.610570,0.051250
3260.542420,0.051376
3261.474270,0.051584
3262.406120,0.051987
3263.337969,0.051735
3264.269819,0.051612
3265.201669,0.051735
3266.133519,0.051925
3267.065369,0.051368
3267.997218,0.051428
3268.929068,0.051417
3269.860918,0.051791
3270.792768,0.052244
3271.724618,0.052703
3272.656467,0.052416
3273.588317,0.052421
3274.520167,0.052166
3275.452017,0.052259
3276.383866,0.052149
3277.315716,0.052077
3278.247566,0.051912
3279.179416,0.051860
3280.111266,0.051574
3281.043115,0.051836
3281.974965,0.051761
3282.906815,0.051841
3283.838665,0.051721
3284.770515,0.051834
3285.702364,0.051558
3286.634214,0.051618
3287.566064,0.051505
3288.497914,0.051686
3289.429764,0.051782
3290.361613,0.052039
3291.293463,0.051925
3292.225313,0.052381
3293.157163,0.052474
3294.089013,0.052501
3295.020862,0.052236
3295.952712,0.052370
3296.884562,0.052445
3297.816412,0.052592
3298.748261,0.052483
3299.680111,0.052722
3300.611961,0.052475
3301.543811,0.052087
3302.475661,0.051687
3303.407510,0.052222
3304.339360,0.052958
3305.271210,0.053750
3306.203060,0.053623
3307.134910,0.053603
3308.066759,0.053463
3308.998609,0.053787
3309.930459,0.053622
3310.862309,0.053361
3311.794159,0.052694
3312.726008,0.052785
3313.657858,0.053167
3314.589708,0.053540
3315.521558,0.052900
3316.453408,0.052608
3317.385257,0.052761
3318.317107,0.052987
3319.248957,0.052555
3320.180807,0.052805
3321.112656,0.052966
3322.044506,0.053209
3322.976356,0.052852
3323.908206,0.053241
3324.840056,0.053604
3325.771905,0.054061
3326.703755,0.054041
3327.635605,0.053823
3328.567455,0.053662
3329.499305,0.053997
3330.431154,0.053628
3331.363004,0.053696
3332.294854,0.053976
3333.226704,0.054536
3334.158554,0.054465
3335.090403,0.054549
3336.022253,0.054512
3336.954103,0.055064
3337.885953,0.055187
3338.817803,0.055192
3339.749652,0.054922
3340.681502,0.055461
3341.613352,0.055493
3342.545202,0.055416
3343.477051,0.055462
3344.408901,0.056009
3345.340751,0.055632
3346.272601,0.055392
3347.204451,0.055285
3348.136300,0.055780
3349.068150,0.055903
3350.000000,0.056550
3350.931850,0.057013
3351.863700,0.057107
3352.795549,0.056659
3353.727399,0.056699
3354.659249,0.056379
3355.591099,0.056660
3356.522949,0.056625
3357.454798,0.056662
3358.386648,0.056852
3359.318498,0.057436
3360.250348,0.057538
3361.182197,0.057891
3362.114047,0.057701
3363.045897,0.057927
3363.977747,0.058039
3364.909597,0.058301
3365.841446,0.058789
3366.773296,0.059748
3367.705146,0.059887
3368.636996,0.059933
3369.568846,0.059788
3370.500695,0.059924
3371.432545,0.059594
3372.364395,0.059601
3373.296245,0.059351
3374.228095,0.059613
3375.159944,0.059760
3376.091794,0.059848
3377.023644,0.059866
3377.955494,0.060203
3378.887344,0.059948
3379.819193,0.060331
3380.751043,0.060500
3381.682893,0.060595
3382.614743,0.060291
3383.546592,0.060833
3384.478442,0.061145
3385.410292,0.061081
3386.342142,0.060765
3387.273992,0.061094
3388.205841,0.060738
3389.137691,0.060843
3390.069541,0.061077
3391.001391,0.061759
3391.933241,0.062385
3392.865090,0.062882
3393.796940,0.062574
3394.728790,0.062633
3395.660640,0.062179
3396.592490,0.062214
3397.524339,0.062342
3398.456189,0.062844
3399.388039,0.062782
3400.319889,0.063176
3401.251739,0.063389
3402.183588,0.063620
3403.115438,0.063307
3404.047288,0.063234
3404.979138,0.062823
3405.910987,0.062649
3406.842837,0.062327
3407.774687,0.062590
3408.706537,0.062526
3409.638387,0.062854
3410.570236,0.063153
3411.502086,0.063637
3412.433936,0.063542
3413.365786,0.063767
3414.297636,0.063634
3415.229485,0.063476
3416.161335,0.063103
3417.093185,0.063459
3418.025035,0.063537
3418.956885,0.063507
3419.888734,0.063359
3420.820584,0.063891
3421.752434,0.063969
3422.684284,0.063593
3423.616134,0.063159
3424.547983,0.063460
3425.479833,0.062872
3426.411683,0.062703
3427.343533,0.062698
3428.275382,0.063469
3429.207232,0.063866
3430.139082,0.064231
3431.070932,0.064150
3432.002782,0.064263
3432.934631,0.063736
3433.866481,0.063586
3434.798331,0.064024
3435.730181,0.064529
3436.662031,0.064292
3437.593880,0.064513
3438.525730,0.064469
3439.457580,0.064252
3440.389430,0.063468
3441.321280,0.063514
3442.253129,0.063527
3443.184979,0.063833
3444.116829,0.063607
3445.048679,0.063416
3445.980529,0.063362
3446.912378,0.064291
3447.844228,0.064304
3448.776078,0.063982
3449.707928,0.062624
3450.639777,0.062167
3451.571627,0.062189
3452.503477,0.062380
3453.435327,0.062208
3454.367177,0.062564
3455.299026,0.062634
3456.230876,0.062683
3457.162726,0.062567
3458.094576,0.062821
3459.026426,0.062420
3459.958275,0.062589
3460.890125,0.062920
3461.821975,0.063195
3462.753825,0.062853
3463.685675,0.062739
3464.617524,0.062245
3465.549374,0.062258
3466.481224,0.062362
3467.413074,0.063043
3468.344924,0.063147
3469.276773,0.063378
3470.208623,0.063215
3471.140473,0.063133
3472.072323,0.062543
3473.004172,0.062439
3473.936022,0.062047
3474.867872,0.062032
3475.799722,0.061766
3476.731572,0.061791
3477.663421,0.061049
3478.595271,0.061212
3479.527121,0.061660
3480.458971,0.062253
3481.390821,0.062378
3482.322670,0.062441
3483.254520,0.061701
3484.186370,0.061290
3485.118220,0.060484
3486.050070,0.060206
3486.981919,0.060364
3487.913769,0.061158
3488.845619,0.060839
3489.777469,0.060833
3490.709318,0.060262
3491.641168,0.060000
3492.573018,0.059911
3493.504868,0.060303
3494.436718,0.060357
3495.368567,0.060990
3496.300417,0.061298
3497.232267,0.061395
3498.164117,0.060662
3499.095967,0.060033
3500.027816,0.059404
3500.959666,0.059823
3501.891516,0.060329
3502.823366,0.061356
3503.755216,0.061786
3504.687065,0.061629
3505.618915,0.059802
3506.550765,0.058859
3507.482615,0.058641
3508.414465,0.059004
3509.346314,0.059494
3510.278164,0.060122
3511.210014,0.059687
3512.141864,0.058453
3513.073713,0.058106
3514.005563,0.058631
3514.937413,0.058419
3515.869263,0.058408
3516.801113,0.057974
3517.732962,0.058047
3518.664812,0.058385
3519.596662,0.058974
3520.528512,0.058808
3521.460362,0.058843
3522.392211,0.058381
3523.324061,0.058975
3524.255911,0.059606
3525.187761,0.059542
3526.119611,0.058340
3527.051460,0.058027
3527.983310,0.057941
3528.915160,0.058192
3529.847010,0.057428
3530.778860,0.056919
3531.710709,0.055817
3532.642559,0.055853
3533.574409,0.055807
3534.506259,0.056094
3535.438108,0.056662
3536.369958,0.057532
3537.301808,0.058052
3538.233658,0.058155
3539.165508,0.056588
3540.097357,0.055744
3541.029207,0.055606
3541.961057,0.056273
3542.892907,0.056901
3543.824757,0.057609
3544.756606,0.058218
3545.688456,0.059025
3546.620306,0.059095
3547.552156,0.058356
3548.484006,0.056347
3549.415855,0.055019
3550.347705,0.054009
3551.279555,0.054966
3552.211405,0.056272
3553.143255,0.057220
3554.075104,0.056543
3555.006954,0.054591
3555.938804,0.052826
3556.870654,0.053055
3557.802503,0.053726
3558.734353,0.054895
3559.666203,0.055208
3560.598053,0.055617
3561.529903,0.055807
3562.461752,0.055872
3563.393602,0.054979
3564.325452,0.055355
3565.257302,0.055955
3566.189152,0.057718
3567.121001,0.059345
3568.052851,0.060515
3568.984701,0.056742
3569.916551,0.053084
3570.848401,0.049754
3571.780250,0.049224
3572.712100,0.050724
3573.643950,0.051936
3574.575800,0.052523
3575.507650,0.053188
3576.439499,0.053312
3577.371349,0.053228
3578.303199,0.052979
3579.235049,0.053149
3580.166898,0.052214
3581.098748,0.052504
3582.030598,0.052553
3582.962448,0.052550
3583.894298,0.052829
3584.826147,0.053790
3585.757997,0.054567
3586.689847,0.056463
3587.621697,0.058281
3588.553547,0.059337
3589.485396,0.054800
3590.417246,0.051088
3591.349096,0.047919
3592.280946,0.047707
3593.212796,0.050323
3594.144645,0.052905
3595.076495,0.054126
3596.008345,0.052895
3596.940195,0.051718
3597.872045,0.051044
3598.803894,0.049886
3599.735744,0.050891
3600.667594,0.051448
3601.599444,0.051087
3602.531293,0.050457
3603.463143,0.049438
3604.394993,0.048730
3605.326843,0.049385
3606.258693,0.050223
3607.190542,0.052533
3608.122392,0.054146
3609.054242,0.055351
3609.986092,0.053417
3610.917942,0.051850
3611.849791,0.048453
3612.781641,0.047652
3613.713491,0.051220
3614.645341,0.052850
3615.577191,0.049273
3616.509040,0.048100
3617.440890,0.048497
3618.372740,0.049663
3619.304590,0.052638
3620.236439,0.052950
3621.168289,0.050666
3622.100139,0.047648
3623.031989,0.043762
3623.963839,0.044326
3624.895688,0.046134
3625.827538,0.048743
3626.759388,0.050091
3627.691238,0.052849
3628.623088,0.056199
3629.554937,0.060024
3630.486787,0.059060
3631.418637,0.049786
3632.350487,0.039902
3633.282337,0.040075
3634.214186,0.045219
3635.146036,0.048629
3636.077886,0.047769
3637.009736,0.045440
3637.941586,0.045528
3638.873435,0.047154
3639.805285,0.047757
3640.737135,0.047336
3641.668985,0.046932
3642.600834,0.047695
3643.532684,0.048512
3644.464534,0.048836
3645.396384,0.048226
3646.328234,0.050027
3647.260083,0.053869
3648.191933,0.057986
3649.123783,0.059445
3650.055633,0.056116
3650.987483,0.053791
3651.919332,0.050012
3652.851182,0.043244
3653.783032,0.038799
3654.714882,0.038910
3655.646732,0.044934
3656.578581,0.050102
3657.510431,0.052542
3658.442281,0.049194
3659.374131,0.043520
3660.305981,0.042824
3661.237830,0.045881
3662.169680,0.046841
3663.101530,0.046521
3664.033380,0.046305
3664.965229,0.047294
3665.897079,0.047380
3666.828929,0.047919
3667.760779,0.048442
3668.692629,0.051131
3669.624478,0.054638
3670.556328,0.058090
3671.488178,0.055029
3672.420028,0.049986
3673.351878,0.043919
3674.283727,0.043524
3675.215577,0.051204
3676.147427,0.059904
3677.079277,0.058727
3678.011127,0.046497
3678.942976,0.037736
3679.874826,0.038805
3680.806676,0.043063
3681.738526,0.044530
3682.670376,0.042893
3683.602225,0.043865
3684.534075,0.045899
3685.465925,0.047375
3686.397775,0.048334
3687.329624,0.050313
3688.261474,0.053916
3689.193324,0.058249
3690.125174,0.058415
3691.057024,0.051831
3691.988873,0.045364
3692.920723,0.044997
3693.852573,0.042997
3694.784423,0.041898
3695.716273,0.043678
3696.648122,0.046035
3697.579972,0.046751
3698.511822,0.047224
3699.443672,0.047034
3700.375522,0.047923
3701.307371,0.049496
3702.239221,0.051464
3703.171071,0.051833
3704.102921,0.049262
3705.034771,0.044379
3705.966620,0.044027
3706.898470,0.045976
3707.830320,0.048105
3708.762170,0.049812
3709.694019,0.052392
3710.625869,0.054333
3711.557719,0.055196
3712.489569,0.052122
3713.421419,0.050722
3714.353268,0.046756
3715.285118,0.040377
3716.216968,0.039916
3717.148818,0.043310
3718.080668,0.045105
3719.012517,0.047336
3719.944367,0.048158
3720.876217,0.048952
3721.808067,0.048596
3722.739917,0.049829
3723.671766,0.050720
3724.603616,0.049217
3725.535466,0.045780
3726.467316,0.047314
3727.399166,0.048614
3728.331015,0.047546
3729.262865,0.044110
3730.194715,0.043282
3731.126565,0.046297
3732.058414,0.051241
3732.990264,0.053852
3733.922114,0.055029
3734.853964,0.051525
3735.785814,0.050063
3736.717663,0.052758
3737.649513,0.049328
3738.581363,0.043406
3739.513213,0.040479
3740.445063,0.040414
3741.376912,0.042222
3742.308762,0.044851
3743.240612,0.049477
3744.172462,0.053091
3745.104312,0.058724
3746.036161,0.060010
3746.968011,0.049794
3747.899861,0.037311
3748.831711,0.041200
3749.763561,0.049932
3750.695410,0.056075
3751.627260,0.054906
3752.559110,0.048758
3753.490960,0.046670
3754.422809,0.044491
3755.354659,0.037716
3756.286509,0.038480
3757.218359,0.043610
3758.150209,0.048222
3759.082058,0.048885
3760.013908,0.048932
3760.945758,0.049719
3761.877608,0.048508
3762.809458,0.043494
3763.741307,0.043175
3764.673157,0.046020
3765.605007,0.049197
3766.536857,0.050624
3767.468707,0.050888
3768.400556,0.047921
3769.332406,0.047158
3770.264256,0.049951
3771.196106,0.051939
3772.127955,0.049058
3773.059805,0.043865
3773.991655,0.042902
3774.923505,0.044817
3775.855355,0.046307
3776.787204,0.047554
3777.719054,0.048244
3778.650904,0.050128
3779.582754,0.051995
3780.514604,0.052556
3781.446453,0.050682
3782.378303,0.046099
3783.310153,0.043912
3784.242003,0.046223
3785.173853,0.048293
3786.105702,0.049416
3787.037552,0.048043
3787.969402,0.045723
3788.901252,0.045095
3789.833102,0.046389
3790.764951,0.046977
3791.696801,0.047707
3792.628651,0.047395
3793.560501,0.047346
3794.492350,0.047461
3795.424200,0.048655
3796.356050,0.050457
3797.287900,0.052203
3798.219750,0.051598
3799.151599,0.048290
3800.083449,0.045938
3801.015299,0.050102
3801.947149,0.055139
3802.878999,0.056732
3803.810848,0.049583
3804.742698,0.040729
3805.674548,0.039366
3806.606398,0.044761
3807.538248,0.050200
3808.470097,0.051767
3809.401947,0.045931
3810.333797,0.039094
3811.265647,0.039761
3812.197497,0.043353
3813.129346,0.045402
3814.061196,0.047039
3814.993046,0.048932
3815.924896,0.052780
3816.856745,0.055500
3817.788595,0.054616
3818.720445,0.046436
3819.652295,0.042095
3820.584145,0.047479
3821.515994,0.054414
3822.447844,0.055861
3823.379694,0.049150
3824.311544,0.039891
3825.243394,0.038180
3826.175243,0.042201
3827.107093,0.045939
3828.038943,0.047439
3828.970793,0.046930
3829.902643,0.044331
3830.834492,0.044940
3831.766342,0.047602
3832.698192,0.049980
3833.630042,0.049873
3834.561892,0.046914
3835.493741,0.046991
3836.425591,0.050837
3837.357441,0.052134
3838.289291,0.051495
3839.221140,0.052219
3840.152990,0.050676
3841.084840,0.044181
3842.016690,0.043203
3842.948540,0.043100
3843.880389,0.042763
3844.812239,0.043886
3845.744089,0.045703
3846.675939,0.043479
3847.607789,0.042856
3848.539638,0.044532
3849.471488,0.046383
3850.403338,0.047880
3851.335188,0.051335
3852.267038,0.055571
3853.198887,0.060204
3854.130737,0.063670
3855.062587,0.059044
3855.994437,0.048705
3856.926287,0.038211
3857.858136,0.033540
3858.789986,0.038050
3859.721836,0.041295
3860.653686,0.042701
3861.585535,0.045373
3862.517385,0.048833
3863.449235,0.050312
3864.381085,0.050056
3865.312935,0.048997
3866.244784,0.049809
3867.176634,0.047325
3868.108484,0.043275
3869.040334,0.044482
3869.972184,0.051169
3870.904033,0.055376
3871.835883,0.053614
3872.767733,0.044538
3873.699583,0.041180
3874.631433,0.044553
3875.563282,0.048161
3876.495132,0.046632
3877.426982,0.042234
3878.358832,0.042015
3879.290682,0.045735
3880.222531,0.049542
3881.154381,0.052536
3882.086231,0.052274
3883.018081,0.047757
3883.949930,0.042789
3884.881780,0.045163
3885.813630,0.049618
3886.745480,0.051715
3887.677330,0.049998
3888.609179,0.043797
3889.541029,0.040077
3890.472879,0.044286
3891.404729,0.049083
3892.336579,0.052165
3893.268428,0.051517
3894.200278,0.046150
3895.132128,0.041585
3896.063978,0.042962
3896.995828,0.044665
3897.927677,0.046976
3898.859527,0.049174
3899.791377,0.052085
3900.723227,0.053257
3901.655076,0.052855
3902.586926,0.049092
3903.518776,0.050039
3904.450626,0.050421
3905.382476,0.048609
3906.314325,0.047053
3907.246175,0.043714
3908.178025,0.041860
3909.109875,0.042715
3910.041725,0.043514
3910.973574,0.045212
3911.905424,0.046006
3912.837274,0.046669
3913.769124,0.047279
3914.700974,0.048414
3915.632823,0.048045
3916.564673,0.048889
3917.496523,0.049911
3918.428373,0.050453
3919.360223,0.048999
3920.292072,0.047605
3921.223922,0.047134
3922.155772,0.047516
3923.087622,0.045984
3924.019471,0.046585
3924.951321,0.048379
3925.883171,0.049432
3926.815021,0.048430
3927.746871,0.046791
3928.678720,0.045125
3929.610570,0.046995
3930.542420,0.048948
3931.474270,0.049938
3932.406120,0.049642
3933.337969,0.049520
3934.269819,0.048453
3935.201669,0.046653
3936.133519,0.045167
3937.065369,0.046293
3937.997218,0.047041
3938.929068,0.047551
3939.860918,0.047271
3940.792768,0.047979
3941.724618,0.048315
3942.656467,0.049472
3943.588317,0.049741
3944.520167,0.050185
3945.452017,0.048077
3946.383866,0.046349
3947.315716,0.046707
3948.247566,0.048785
3949.179416,0.049435
3950.111266,0.049528
3951.043115,0.048350
3951.974965,0.048119
3952.906815,0.047024
3953.838665,0.046856
3954.770515,0.047195
3955.702364,0.047590
3956.634214,0.047292
3957.566064,0.047626
3958.497914,0.047646
3959.429764,0.048360
3960.361613,0.048225
3961.293463,0.048814
3962.225313,0.048844
3963.157163,0.048633
3964.089013,0.047947
3965.020862,0.048092
3965.952712,0.047856
3966.884562,0.048129
3967.816412,0.047956
3968.748261,0.048796
3969.680111,0.048734
3970.611961,0.048706
3971.543811,0.048202
3972.475661,0.048258
3973.407510,0.048181
3974.339360,0.048548
3975.271210,0.048467
3976.203060,0.049053
3977.134910,0.048811
3978.066759,0.049232
3978.998609,0.048234
3979.930459,0.047756
3980.862309,0.047942
3981.794159,0.048791
3982.726008,0.048688
3983.657858,0.048468
3984.589708,0.047869
3985.521558,0.047984
3986.453408,0.047580
3987.385257,0.048168
3988.317107,0.048412
3989.248957,0.049221
3990.180807,0.049068
3991.112656,0.049140
3992.044506,0.048677
3992.976356,0.048956
3993.908206,0.048471
3994.840056,0.048511
3995.771905,0.048764
3996.703755,0.049406
3997.635605,0.048676
3998.567455,0.048738
3999.499305,0.048824
4000.431154,0.049436
